time,wavelength_shift_1,wavelength_shift_2
0.008,-0.5846,-0.4173
0.017,-0.5846,-0.418
0.025,-0.5832,-0.4188
0.033,-0.5841,-0.4183
0.04,-0.5827,-0.4163
0.049,-0.5844,-0.4183
0.057,-0.5857,-0.4206
0.065,-0.5815,-0.4194
0.073,-0.5824,-0.4196
0.081,-0.5837,-0.42
0.091,-0.5815,-0.4169
0.101,-0.5849,-0.4174
0.109,-0.583,-0.4174
0.118,-0.5833,-0.4203
0.126,-0.582,-0.4172
0.134,-0.5863,-0.4164
0.142,-0.5831,-0.4188
0.151,-0.5815,-0.4179
0.187,-0.5845,-0.4209
0.216,-0.5858,-0.4228
0.244,-0.5842,-0.4221
0.273,-0.5857,-0.4233
0.303,-0.5866,-0.4206
0.332,-0.5845,-0.4218
0.362,-0.5839,-0.4214
0.4,-0.5823,-0.4213
0.421,-0.5869,-0.4225
0.451,-0.5842,-0.4201
0.479,-0.5863,-0.4232
0.51,-0.5845,-0.4213
0.54,-0.5863,-0.4216
0.585,-0.5863,-0.4225
0.599,-0.5854,-0.421
0.628,-0.5846,-0.4221
0.658,-0.5855,-0.4214
0.688,-0.581,-0.4241
0.717,-0.5891,-0.4213
0.747,-0.5844,-0.4221
0.777,-0.5869,-0.4235
0.806,-0.5836,-0.4206
0.835,-0.5862,-0.4192
0.864,-0.5848,-0.4222
0.894,-0.584,-0.4202
0.925,-0.5835,-0.4217
0.959,-0.5803,-0.4225
1.006,-0.5847,-0.421
1.019,-0.5837,-0.42
1.042,-0.5859,-0.4222
1.073,-0.5842,-0.4217
1.103,-0.5861,-0.4217
1.132,-0.5816,-0.4243
1.162,-0.588,-0.4195
1.19,-0.5881,-0.4214
1.22,-0.5838,-0.4228
1.249,-0.5831,-0.4183
1.279,-0.586,-0.4229
1.31,-0.5863,-0.4256
1.339,-0.5859,-0.4184
1.368,-0.5839,-0.4242
1.397,-0.5801,-0.4235
1.428,-0.5829,-0.42
1.457,-0.5855,-0.4213
1.487,-0.5883,-0.4266
1.522,-0.5837,-0.4236
1.546,-0.5849,-0.4236
1.576,-0.5868,-0.4222
1.606,-0.5837,-0.4228
1.634,-0.5853,-0.4204
1.664,-0.5853,-0.4224
1.694,-0.5851,-0.4227
1.724,-0.5832,-0.4193
1.754,-0.5873,-0.4195
1.782,-0.5857,-0.4238
1.812,-0.5892,-0.4232
1.844,-0.5865,-0.4236
1.872,-0.5849,-0.4223
1.901,-0.5851,-0.4221
1.931,-0.5852,-0.4252
1.96,-0.5876,-0.4218
1.99,-0.5867,-0.4229
2.02,-0.5854,-0.4228
2.05,-0.5855,-0.4239
2.079,-0.5824,-0.4222
2.108,-0.5851,-0.4211
2.139,-0.5839,-0.4222
2.177,-0.5873,-0.4228
2.197,-0.5875,-0.4204
2.227,-0.5834,-0.4222
2.256,-0.5859,-0.4212
2.286,-0.5845,-0.4227
2.316,-0.5871,-0.4244
2.345,-0.5859,-0.4213
2.375,-0.5826,-0.4241
2.406,-0.584,-0.4241
2.434,-0.5895,-0.4254
2.464,-0.5846,-0.4225
2.493,-0.5829,-0.4214
2.523,-0.5868,-0.4225
2.552,-0.584,-0.4252
2.582,-0.5829,-0.4245
2.612,-0.584,-0.4243
2.644,-0.5832,-0.4211
2.671,-0.5857,-0.4224
2.701,-0.5847,-0.4222
2.733,-0.5802,-0.4245
2.761,-0.5849,-0.4215
2.789,-0.5855,-0.4206
2.819,-0.5852,-0.4236
2.849,-0.5863,-0.4224
2.878,-0.5833,-0.422
2.91,-0.5851,-0.4229
2.937,-0.5844,-0.4243
2.967,-0.584,-0.4232
2.997,-0.5869,-0.4212
3.027,-0.5841,-0.4233
3.056,-0.5835,-0.4246
3.086,-0.5837,-0.4238
3.115,-0.5832,-0.4225
3.145,-0.5844,-0.4222
3.174,-0.5868,-0.4225
3.204,-0.589,-0.4246
3.234,-0.5835,-0.4243
3.263,-0.5865,-0.4271
3.293,-0.5871,-0.424
3.325,-0.5865,-0.424
3.354,-0.5849,-0.4235
3.382,-0.5841,-0.4243
3.411,-0.5837,-0.4229
3.441,-0.5849,-0.4271
3.47,-0.5841,-0.4235
3.504,-0.5824,-0.4242
3.53,-0.5858,-0.4252
3.559,-0.5865,-0.4258
3.589,-0.5844,-0.425
3.634,-0.5854,-0.4229
3.648,-0.5823,-0.4246
3.678,-0.5849,-0.4231
3.706,-0.5836,-0.4208
3.737,-0.585,-0.4223
3.767,-0.5866,-0.4243
3.797,-0.5869,-0.4264
3.826,-0.5832,-0.4271
3.856,-0.5846,-0.427
3.885,-0.5875,-0.4235
3.916,-0.5858,-0.4252
3.945,-0.5857,-0.4274
3.974,-0.5811,-0.425
4.004,-0.5833,-0.4249
4.032,-0.5849,-0.4234
4.063,-0.5869,-0.4254
4.093,-0.5822,-0.4239
4.122,-0.5846,-0.4264
4.152,-0.5852,-0.4256
4.181,-0.585,-0.4246
4.211,-0.5863,-0.425
4.241,-0.5818,-0.4249
4.27,-0.5897,-0.4264
4.299,-0.5836,-0.4265
4.328,-0.5863,-0.4275
4.358,-0.5852,-0.4269
4.39,-0.5846,-0.4303
4.417,-0.5852,-0.4268
4.447,-0.5844,-0.4232
4.478,-0.5855,-0.4271
4.507,-0.5854,-0.4264
4.536,-0.5844,-0.4269
4.566,-0.584,-0.4278
4.596,-0.5852,-0.4261
4.625,-0.5829,-0.4266
4.654,-0.5808,-0.4291
4.688,-0.5877,-0.4268
4.714,-0.5866,-0.4267
4.747,-0.5851,-0.4264
4.773,-0.5858,-0.4249
4.803,-0.5845,-0.425
4.834,-0.5837,-0.4241
4.863,-0.584,-0.4278
4.891,-0.5819,-0.4291
4.922,-0.5851,-0.4259
4.952,-0.5811,-0.4279
4.981,-0.5865,-0.4247
5.011,-0.5848,-0.426
5.041,-0.5875,-0.4288
5.072,-0.583,-0.4268
5.101,-0.5863,-0.4282
5.128,-0.5837,-0.4263
5.158,-0.5876,-0.4285
5.188,-0.5856,-0.4258
5.217,-0.585,-0.4271
5.247,-0.5865,-0.4271
5.278,-0.5851,-0.4304
5.307,-0.5848,-0.4265
5.337,-0.5863,-0.4273
5.372,-0.5844,-0.4269
5.396,-0.5879,-0.4254
5.425,-0.5861,-0.4285
5.454,-0.5837,-0.4263
5.484,-0.5851,-0.4262
5.514,-0.5866,-0.4268
5.543,-0.586,-0.4249
5.574,-0.5867,-0.4257
5.603,-0.5854,-0.4257
5.633,-0.5846,-0.4263
5.663,-0.5883,-0.4254
5.692,-0.5813,-0.4271
5.722,-0.5867,-0.428
5.752,-0.5863,-0.4265
5.78,-0.5847,-0.4275
5.81,-0.5841,-0.4252
5.839,-0.5852,-0.4266
5.869,-0.5824,-0.428
5.901,-0.584,-0.4283
5.928,-0.5866,-0.4225
5.959,-0.586,-0.4271
5.988,-0.5837,-0.4271
6.017,-0.5877,-0.4249
6.047,-0.584,-0.4274
6.076,-0.5835,-0.4277
6.106,-0.5851,-0.4255
6.136,-0.5875,-0.4256
6.166,-0.581,-0.4261
6.196,-0.5875,-0.4264
6.226,-0.5829,-0.4298
6.255,-0.5871,-0.4254
6.284,-0.5851,-0.4266
6.314,-0.5866,-0.4261
6.343,-0.5855,-0.4246
6.373,-0.5868,-0.4294
6.402,-0.5868,-0.4239
6.432,-0.5857,-0.4272
6.462,-0.5862,-0.4288
6.491,-0.5876,-0.4256
6.521,-0.5871,-0.4249
6.553,-0.5858,-0.4255
6.584,-0.5854,-0.4265
6.61,-0.5858,-0.4257
6.639,-0.5807,-0.4245
6.669,-0.5862,-0.4243
6.699,-0.5848,-0.4256
6.728,-0.5857,-0.4276
6.758,-0.5869,-0.4254
6.788,-0.5871,-0.4247
6.817,-0.5855,-0.4233
6.847,-0.5855,-0.4239
6.877,-0.5886,-0.4233
6.906,-0.5848,-0.4276
6.936,-0.5885,-0.4253
6.965,-0.5819,-0.4257
6.995,-0.5809,-0.4271
7.025,-0.5849,-0.4269
7.055,-0.5865,-0.4237
7.084,-0.5841,-0.4257
7.116,-0.5835,-0.4259
7.149,-0.5879,-0.4286
7.173,-0.5854,-0.4291
7.202,-0.5883,-0.4261
7.232,-0.5851,-0.4285
7.262,-0.5832,-0.4229
7.291,-0.5858,-0.4291
7.321,-0.5855,-0.4272
7.354,-0.5872,-0.4261
7.38,-0.5856,-0.4252
7.41,-0.5839,-0.4288
7.441,-0.5821,-0.4277
7.47,-0.5819,-0.4263
7.499,-0.5859,-0.4279
7.528,-0.5853,-0.4257
7.558,-0.5858,-0.4262
7.588,-0.5879,-0.4254
7.617,-0.5868,-0.4271
7.647,-0.5852,-0.426
7.676,-0.5831,-0.4258
7.706,-0.5858,-0.4313
7.736,-0.583,-0.4262
7.765,-0.5857,-0.4244
7.795,-0.587,-0.4259
7.825,-0.5899,-0.4274
7.854,-0.5847,-0.4277
7.886,-0.5849,-0.4262
7.913,-0.5855,-0.4252
7.948,-0.5835,-0.4275
7.973,-0.5864,-0.4255
8.002,-0.585,-0.4255
8.032,-0.5848,-0.4273
8.061,-0.5869,-0.4269
8.091,-0.5883,-0.4252
8.121,-0.5861,-0.426
8.15,-0.5849,-0.4268
8.18,-0.5846,-0.4268
8.21,-0.5837,-0.4258
8.24,-0.585,-0.427
8.27,-0.5849,-0.4255
8.298,-0.5861,-0.4272
8.329,-0.586,-0.427
8.358,-0.5866,-0.426
8.386,-0.5898,-0.4293
8.416,-0.5848,-0.4288
8.447,-0.5869,-0.4272
8.476,-0.5863,-0.4264
8.506,-0.586,-0.4288
8.536,-0.5844,-0.4282
8.565,-0.5872,-0.4282
8.595,-0.5879,-0.4274
8.624,-0.5876,-0.4287
8.656,-0.584,-0.4276
8.684,-0.585,-0.4266
8.713,-0.588,-0.4243
8.742,-0.5889,-0.426
8.773,-0.5835,-0.426
8.802,-0.5833,-0.4276
8.832,-0.5835,-0.4265
8.861,-0.5832,-0.4286
8.891,-0.5841,-0.4276
8.925,-0.5895,-0.4288
8.95,-0.587,-0.4259
8.98,-0.5864,-0.4239
9.01,-0.5844,-0.4283
9.04,-0.5847,-0.4235
9.069,-0.5872,-0.4281
9.099,-0.5863,-0.4258
9.128,-0.5861,-0.4295
9.157,-0.5854,-0.4257
9.187,-0.5848,-0.4287
9.216,-0.5854,-0.4244
9.247,-0.5871,-0.4275
9.276,-0.5877,-0.4279
9.306,-0.586,-0.4303
9.336,-0.5857,-0.4271
9.365,-0.5838,-0.427
9.395,-0.5868,-0.4282
9.425,-0.5879,-0.4274
9.453,-0.5878,-0.4302
9.483,-0.5885,-0.4293
9.514,-0.5854,-0.4282
9.543,-0.5851,-0.4297
9.573,-0.5855,-0.4291
9.601,-0.5814,-0.425
9.631,-0.5859,-0.4257
9.661,-0.5844,-0.4281
9.69,-0.5838,-0.429
9.721,-0.5859,-0.4282
9.752,-0.5872,-0.4301
9.78,-0.5884,-0.4284
9.816,-0.5876,-0.4275
9.84,-0.5871,-0.4252
9.869,-0.5873,-0.4288
9.898,-0.5873,-0.426
9.927,-0.5863,-0.4279
9.957,-0.5872,-0.4309
9.987,-0.5858,-0.4261
10.017,-0.5834,-0.4261
10.046,-0.5888,-0.4275
10.077,-0.584,-0.4272
10.105,-0.5836,-0.425
10.136,-0.5897,-0.429
10.166,-0.5908,-0.4291
10.194,-0.5863,-0.4275
10.224,-0.5844,-0.4266
10.253,-0.5867,-0.4271
10.283,-0.5839,-0.4264
10.312,-0.5844,-0.4274
10.344,-0.5876,-0.4261
10.377,-0.5868,-0.428
10.402,-0.5839,-0.4289
10.432,-0.5843,-0.4278
10.461,-0.5882,-0.4283
10.49,-0.5848,-0.428
10.52,-0.5827,-0.43
10.55,-0.5857,-0.4292
10.579,-0.5842,-0.4305
10.612,-0.5833,-0.429
10.639,-0.5836,-0.428
10.669,-0.5894,-0.434
10.698,-0.5859,-0.4299
10.727,-0.5837,-0.4303
10.757,-0.5866,-0.4287
10.787,-0.5858,-0.4307
10.816,-0.5871,-0.4307
10.846,-0.5892,-0.4321
10.875,-0.5866,-0.4316
10.906,-0.5846,-0.4303
10.936,-0.5881,-0.4288
10.965,-0.5842,-0.4301
10.994,-0.5876,-0.4285
11.024,-0.5852,-0.4303
11.053,-0.5895,-0.4299
11.083,-0.589,-0.4315
11.112,-0.5848,-0.4303
11.145,-0.5865,-0.4274
11.172,-0.5835,-0.4302
11.201,-0.5851,-0.4318
11.231,-0.5855,-0.4286
11.261,-0.586,-0.4296
11.29,-0.5853,-0.431
11.322,-0.5845,-0.4313
11.351,-0.5845,-0.4302
11.379,-0.587,-0.4322
11.409,-0.5832,-0.4311
11.438,-0.5847,-0.4297
11.468,-0.5873,-0.4294
11.498,-0.5854,-0.4288
11.527,-0.5865,-0.43
11.557,-0.5869,-0.431
11.587,-0.5853,-0.4322
11.617,-0.5818,-0.4313
11.646,-0.5838,-0.4323
11.675,-0.5835,-0.429
11.704,-0.5904,-0.4315
11.735,-0.5851,-0.4296
11.764,-0.5857,-0.4284
11.796,-0.5855,-0.4302
11.823,-0.584,-0.4327
11.854,-0.5885,-0.4284
11.884,-0.5855,-0.4301
11.912,-0.5846,-0.4324
11.942,-0.5879,-0.4266
11.971,-0.5871,-0.4304
12,-0.5873,-0.4308
12.031,-0.5849,-0.4322
12.059,-0.5848,-0.4299
12.09,-0.5832,-0.4308
12.12,-0.5831,-0.4323
12.149,-0.5804,-0.4341
12.179,-0.5867,-0.4288
12.208,-0.5898,-0.4311
12.238,-0.5838,-0.4295
12.268,-0.5848,-0.4307
12.297,-0.5843,-0.431
12.327,-0.5861,-0.4308
12.355,-0.5863,-0.4305
12.386,-0.5846,-0.4302
12.416,-0.5872,-0.4326
12.445,-0.585,-0.4327
12.476,-0.583,-0.4324
12.505,-0.5854,-0.4304
12.534,-0.5865,-0.431
12.564,-0.5869,-0.4349
12.594,-0.5828,-0.432
12.623,-0.5866,-0.431
12.653,-0.5862,-0.4335
12.684,-0.5891,-0.432
12.712,-0.5841,-0.4327
12.742,-0.5852,-0.433
12.776,-0.5835,-0.4308
12.802,-0.586,-0.4327
12.83,-0.5861,-0.433
12.859,-0.5849,-0.4321
12.889,-0.5827,-0.4305
12.918,-0.5848,-0.4324
12.948,-0.5837,-0.4318
12.979,-0.5837,-0.432
13.008,-0.5864,-0.4318
13.038,-0.5821,-0.4322
13.068,-0.5832,-0.4312
13.097,-0.584,-0.4306
13.127,-0.5808,-0.4316
13.157,-0.5844,-0.4327
13.186,-0.5816,-0.4329
13.22,-0.5867,-0.4322
13.247,-0.587,-0.4357
13.275,-0.5839,-0.435
13.304,-0.5849,-0.4345
13.333,-0.586,-0.4347
13.363,-0.5835,-0.4319
13.393,-0.5844,-0.4338
13.422,-0.5857,-0.431
13.452,-0.5823,-0.4313
13.482,-0.5855,-0.4313
13.512,-0.5853,-0.4318
13.542,-0.5843,-0.4329
13.571,-0.5862,-0.4324
13.601,-0.5846,-0.4335
13.63,-0.5839,-0.433
13.661,-0.5852,-0.4352
13.689,-0.5829,-0.4327
13.718,-0.5854,-0.433
13.748,-0.5827,-0.432
13.778,-0.5826,-0.4351
13.807,-0.5843,-0.4327
13.837,-0.5836,-0.4307
13.867,-0.5832,-0.4341
13.897,-0.5858,-0.4345
13.927,-0.5858,-0.4317
13.956,-0.5836,-0.4332
13.986,-0.584,-0.4338
14.016,-0.5851,-0.4299
14.044,-0.5835,-0.4336
14.074,-0.5863,-0.4308
14.105,-0.5832,-0.433
14.133,-0.5846,-0.4366
14.163,-0.5853,-0.4341
14.192,-0.5831,-0.4312
14.222,-0.5816,-0.4315
14.252,-0.5853,-0.4344
14.283,-0.5864,-0.4335
14.312,-0.5808,-0.4311
14.342,-0.5881,-0.4344
14.37,-0.5837,-0.4304
14.4,-0.5876,-0.4343
14.431,-0.586,-0.4323
14.459,-0.5843,-0.4343
14.489,-0.5827,-0.4332
14.519,-0.584,-0.4329
14.552,-0.5837,-0.4305
14.579,-0.5831,-0.4304
14.607,-0.5855,-0.4318
14.637,-0.5829,-0.4338
14.667,-0.5865,-0.4346
14.696,-0.5844,-0.4297
14.727,-0.5868,-0.4319
14.755,-0.5846,-0.4318
14.785,-0.5842,-0.433
14.815,-0.5837,-0.433
14.844,-0.5814,-0.4316
14.874,-0.5833,-0.433
14.905,-0.5884,-0.4291
14.934,-0.5856,-0.4352
14.972,-0.586,-0.4327
14.992,-0.5879,-0.4324
15.022,-0.584,-0.431
15.052,-0.5868,-0.433
15.086,-0.5857,-0.4301
15.111,-0.5835,-0.4325
15.14,-0.586,-0.4283
15.17,-0.5854,-0.4308
15.201,-0.5858,-0.4348
15.232,-0.5815,-0.4303
15.259,-0.5874,-0.4315
15.288,-0.5844,-0.4338
15.318,-0.5861,-0.4307
15.348,-0.5805,-0.4307
15.377,-0.5815,-0.43
15.408,-0.5834,-0.4317
15.441,-0.5837,-0.436
15.468,-0.5816,-0.4329
15.496,-0.5862,-0.4365
15.525,-0.5853,-0.435
15.555,-0.587,-0.4363
15.585,-0.5837,-0.4335
15.614,-0.5844,-0.434
15.646,-0.5835,-0.4335
15.673,-0.5857,-0.4335
15.703,-0.5852,-0.433
15.733,-0.5838,-0.4336
15.763,-0.5849,-0.4355
15.796,-0.5803,-0.4356
15.821,-0.5861,-0.4332
15.851,-0.5862,-0.4355
15.881,-0.5866,-0.4341
15.912,-0.5848,-0.4341
15.941,-0.581,-0.4324
15.971,-0.5865,-0.4361
15.999,-0.5846,-0.4338
16.029,-0.5818,-0.4351
16.059,-0.5808,-0.4337
16.088,-0.5865,-0.432
16.118,-0.5813,-0.4321
16.147,-0.5857,-0.4329
16.177,-0.5838,-0.432
16.206,-0.5843,-0.4354
16.236,-0.5846,-0.4333
16.266,-0.5866,-0.4354
16.295,-0.5863,-0.4344
16.325,-0.5851,-0.4348
16.355,-0.5834,-0.4344
16.384,-0.5868,-0.435
16.413,-0.585,-0.4335
16.443,-0.5847,-0.4329
16.472,-0.5839,-0.4356
16.502,-0.5854,-0.4341
16.532,-0.5864,-0.4346
16.562,-0.5871,-0.4343
16.592,-0.5833,-0.4322
16.621,-0.5843,-0.4334
16.651,-0.5851,-0.4363
16.68,-0.5834,-0.4337
16.71,-0.5849,-0.4358
16.743,-0.5841,-0.4336
16.771,-0.5831,-0.4367
16.799,-0.5813,-0.4336
16.829,-0.583,-0.4349
16.858,-0.5851,-0.4365
16.888,-0.5852,-0.4348
16.919,-0.5863,-0.4353
16.948,-0.5808,-0.4318
16.977,-0.5827,-0.4354
17.007,-0.5857,-0.4345
17.036,-0.5827,-0.4345
17.066,-0.5868,-0.4341
17.095,-0.5816,-0.4349
17.126,-0.5845,-0.434
17.158,-0.5838,-0.4341
17.184,-0.5845,-0.4338
17.214,-0.5849,-0.434
17.244,-0.5841,-0.4344
17.273,-0.5858,-0.4341
17.303,-0.5858,-0.438
17.332,-0.5862,-0.4331
17.362,-0.5849,-0.4336
17.392,-0.5853,-0.4325
17.421,-0.5835,-0.4327
17.451,-0.5856,-0.4352
17.48,-0.5863,-0.4347
17.516,-0.5877,-0.436
17.541,-0.5877,-0.4333
17.569,-0.5868,-0.4347
17.598,-0.5863,-0.4383
17.628,-0.5841,-0.4343
17.657,-0.586,-0.437
17.687,-0.5858,-0.4338
17.718,-0.5857,-0.4346
17.747,-0.5854,-0.4341
17.777,-0.583,-0.4335
17.806,-0.5835,-0.4332
17.836,-0.5852,-0.4351
17.869,-0.5864,-0.4354
17.894,-0.5831,-0.4358
17.924,-0.5857,-0.4365
17.953,-0.5828,-0.4343
17.984,-0.585,-0.4366
18.013,-0.5843,-0.4352
18.042,-0.5854,-0.4335
18.073,-0.5837,-0.4343
18.103,-0.5854,-0.4315
18.134,-0.5851,-0.437
18.162,-0.5837,-0.4339
18.191,-0.5875,-0.4393
18.221,-0.5842,-0.4369
18.251,-0.5904,-0.4321
18.28,-0.5835,-0.4353
18.313,-0.584,-0.4384
18.339,-0.5841,-0.4357
18.368,-0.5824,-0.4346
18.398,-0.5853,-0.4335
18.428,-0.5807,-0.4364
18.458,-0.5829,-0.4355
18.488,-0.5869,-0.4388
18.516,-0.5836,-0.4365
18.547,-0.5846,-0.4325
18.579,-0.5839,-0.4343
18.605,-0.5852,-0.4352
18.636,-0.589,-0.4375
18.666,-0.5845,-0.4363
18.694,-0.5848,-0.438
18.728,-0.5839,-0.4346
18.753,-0.5884,-0.4366
18.783,-0.5822,-0.4368
18.813,-0.5857,-0.4343
18.842,-0.585,-0.4339
18.872,-0.5841,-0.4358
18.902,-0.5837,-0.4326
18.932,-0.5829,-0.4355
18.962,-0.5863,-0.4358
18.991,-0.5868,-0.4355
19.021,-0.5849,-0.4354
19.05,-0.5868,-0.4343
19.079,-0.586,-0.4354
19.109,-0.5857,-0.4347
19.139,-0.5884,-0.4336
19.168,-0.5884,-0.4333
19.198,-0.5854,-0.4366
19.227,-0.5838,-0.4351
19.257,-0.5866,-0.4339
19.287,-0.5849,-0.4371
19.317,-0.5857,-0.4338
19.347,-0.5825,-0.4341
19.376,-0.5869,-0.4331
19.406,-0.5859,-0.4362
19.435,-0.5891,-0.4354
19.464,-0.5876,-0.4343
19.494,-0.5839,-0.4364
19.524,-0.5868,-0.4345
19.555,-0.5868,-0.4379
19.583,-0.5866,-0.4336
19.614,-0.5833,-0.4372
19.642,-0.5858,-0.4351
19.672,-0.586,-0.4354
19.702,-0.584,-0.4374
19.731,-0.5861,-0.4378
19.761,-0.5864,-0.4354
19.79,-0.5873,-0.4343
19.82,-0.5858,-0.4363
19.85,-0.5854,-0.4344
19.888,-0.5849,-0.4347
19.91,-0.5853,-0.4367
19.94,-0.5853,-0.4384
19.969,-0.5877,-0.4349
19.998,-0.5854,-0.4386
20.028,-0.5838,-0.4379
20.057,-0.5869,-0.435
20.087,-0.5848,-0.439
20.116,-0.5843,-0.436
20.146,-0.5862,-0.4382
20.175,-0.5863,-0.4377
20.205,-0.5845,-0.4394
20.236,-0.5884,-0.4373
20.264,-0.5834,-0.4369
20.294,-0.5836,-0.4359
20.324,-0.5832,-0.4372
20.353,-0.5862,-0.4394
20.383,-0.5858,-0.4382
20.412,-0.5855,-0.4363
20.443,-0.5858,-0.4335
20.473,-0.5857,-0.4336
20.501,-0.5867,-0.4382
20.533,-0.5875,-0.4341
20.561,-0.5874,-0.4394
20.59,-0.5811,-0.4383
20.62,-0.5869,-0.4335
20.648,-0.5846,-0.438
20.68,-0.5838,-0.4347
20.709,-0.5855,-0.4362
20.738,-0.5851,-0.436
20.768,-0.5843,-0.4337
20.799,-0.5833,-0.4383
20.827,-0.5865,-0.4367
20.857,-0.5887,-0.4343
20.886,-0.5873,-0.4349
20.916,-0.5844,-0.4372
20.946,-0.5867,-0.4369
20.978,-0.5846,-0.4362
21.005,-0.5836,-0.4382
21.035,-0.5842,-0.4369
21.067,-0.5802,-0.4354
21.095,-0.5844,-0.4345
21.123,-0.5841,-0.4374
21.153,-0.584,-0.4356
21.183,-0.5844,-0.4352
21.212,-0.5854,-0.4351
21.242,-0.5851,-0.4353
21.273,-0.5884,-0.4365
21.301,-0.5839,-0.4338
21.331,-0.5869,-0.4366
21.36,-0.5835,-0.4388
21.39,-0.5846,-0.439
21.419,-0.5867,-0.435
21.448,-0.5885,-0.4363
21.478,-0.5848,-0.4342
21.508,-0.5844,-0.4373
21.537,-0.5872,-0.4363
21.568,-0.5835,-0.4349
21.599,-0.586,-0.4368
21.627,-0.5866,-0.4354
21.657,-0.5827,-0.4387
21.687,-0.5877,-0.4357
21.716,-0.584,-0.4346
21.749,-0.5862,-0.4347
21.775,-0.5864,-0.4381
21.804,-0.5846,-0.4382
21.834,-0.5909,-0.4355
21.863,-0.586,-0.4387
21.893,-0.5854,-0.4356
21.923,-0.5864,-0.4378
21.953,-0.588,-0.4355
21.983,-0.5833,-0.4382
22.012,-0.5865,-0.4383
22.042,-0.5849,-0.4364
22.072,-0.5842,-0.4357
22.101,-0.5884,-0.4366
22.13,-0.5838,-0.4369
22.16,-0.5861,-0.438
22.19,-0.586,-0.4376
22.22,-0.5862,-0.4359
22.249,-0.5832,-0.4376
22.279,-0.5853,-0.4352
22.309,-0.5851,-0.4366
22.338,-0.584,-0.4359
22.367,-0.5869,-0.4361
22.396,-0.5833,-0.4357
22.426,-0.5823,-0.4398
22.457,-0.5877,-0.4374
22.487,-0.5879,-0.4385
22.517,-0.5862,-0.4363
22.546,-0.5808,-0.4376
22.575,-0.5854,-0.4394
22.608,-0.5871,-0.4372
22.634,-0.584,-0.4367
22.664,-0.5871,-0.4348
22.694,-0.5837,-0.437
22.722,-0.587,-0.4358
22.753,-0.5824,-0.435
22.783,-0.5823,-0.436
22.812,-0.5875,-0.4372
22.842,-0.5838,-0.4341
22.871,-0.5882,-0.4353
22.9,-0.5843,-0.4376
22.93,-0.5817,-0.4358
22.959,-0.5833,-0.4382
22.989,-0.5867,-0.4349
23.019,-0.5856,-0.4387
23.049,-0.5866,-0.4351
23.079,-0.587,-0.4375
23.108,-0.5867,-0.4387
23.138,-0.5849,-0.4362
23.168,-0.5832,-0.4377
23.196,-0.584,-0.4365
23.226,-0.5859,-0.4376
23.256,-0.5849,-0.438
23.285,-0.5867,-0.4368
23.315,-0.5871,-0.436
23.345,-0.5832,-0.4373
23.374,-0.5821,-0.4366
23.405,-0.5888,-0.4358
23.434,-0.5848,-0.4396
23.463,-0.5868,-0.4396
23.494,-0.5873,-0.4363
23.522,-0.5875,-0.4359
23.552,-0.5841,-0.436
23.582,-0.5821,-0.4355
23.611,-0.584,-0.438
23.646,-0.5848,-0.4382
23.671,-0.5876,-0.4376
23.7,-0.5861,-0.435
23.73,-0.5835,-0.439
23.759,-0.5883,-0.4377
23.789,-0.584,-0.4366
23.819,-0.5875,-0.4385
23.848,-0.5886,-0.439
23.878,-0.588,-0.4369
23.909,-0.5854,-0.4394
23.938,-0.5874,-0.4376
23.968,-0.5861,-0.4379
23.996,-0.5866,-0.4359
24.027,-0.5866,-0.4374
24.057,-0.5847,-0.4378
24.085,-0.5854,-0.438
24.115,-0.5852,-0.4373
24.145,-0.5862,-0.4394
24.174,-0.5851,-0.4367
24.204,-0.5857,-0.4369
24.233,-0.5849,-0.4398
24.263,-0.5825,-0.4381
24.296,-0.5851,-0.4379
24.322,-0.5871,-0.4399
24.353,-0.5891,-0.4364
24.381,-0.586,-0.4388
24.411,-0.5843,-0.4379
24.441,-0.5881,-0.4401
24.47,-0.5857,-0.4387
24.5,-0.5855,-0.4401
24.53,-0.5846,-0.4342
24.559,-0.5828,-0.4383
24.589,-0.5839,-0.4382
24.618,-0.5848,-0.4378
24.65,-0.5854,-0.4376
24.678,-0.5823,-0.437
24.707,-0.589,-0.4377
24.737,-0.587,-0.4357
24.766,-0.5858,-0.4373
24.796,-0.5842,-0.4391
24.826,-0.5873,-0.4376
24.856,-0.5866,-0.436
24.886,-0.5866,-0.4358
24.915,-0.5851,-0.4394
24.944,-0.5849,-0.4396
24.974,-0.5859,-0.4382
25.003,-0.5859,-0.4365
25.033,-0.5862,-0.4382
25.063,-0.5852,-0.4396
25.092,-0.5857,-0.4379
25.122,-0.585,-0.4374
25.152,-0.5876,-0.438
25.182,-0.586,-0.4401
25.211,-0.5853,-0.439
25.241,-0.5852,-0.4387
25.27,-0.5874,-0.4354
25.3,-0.589,-0.4385
25.329,-0.5871,-0.4371
25.359,-0.5881,-0.4334
25.388,-0.5852,-0.4398
25.42,-0.5874,-0.4361
25.448,-0.5866,-0.4365
25.479,-0.587,-0.4376
25.507,-0.5846,-0.4388
25.537,-0.5891,-0.4383
25.566,-0.5873,-0.4391
25.595,-0.5876,-0.4374
25.624,-0.5862,-0.4358
25.655,-0.5896,-0.4378
25.685,-0.5877,-0.4377
25.716,-0.5867,-0.4374
25.744,-0.5866,-0.4369
25.774,-0.5846,-0.4376
25.803,-0.5849,-0.4398
25.834,-0.5873,-0.4373
25.862,-0.5834,-0.4415
25.891,-0.5858,-0.4374
25.921,-0.5872,-0.4393
25.951,-0.5884,-0.4379
25.98,-0.5863,-0.4386
26.01,-0.5826,-0.4383
26.044,-0.5876,-0.4396
26.075,-0.5885,-0.4365
26.104,-0.5888,-0.4388
